Data from FLMS025871_15-48-04-506.txt Node
Date: Tue Nov 17 15:48:04 GMT 2020
User: php20df
Spectrometer: FLMS02587
Trigger mode: 0
Integration Time (sec): 1.000000E-1
Scans to average: 1
Electric dark correction enabled: true
Nonlinearity correction enabled: false
Boxcar width: 0
XAxis mode: Wavelengths
Number of Pixels in Spectrum: 2048
>>>>>Begin Spectral Data<<<<<
339.619	-66.55
340	-66.55
340.381	-66.55
340.762	-86.41
341.143	-86.41
341.524	-98.82
341.904	-71.52
342.285	-83.93
342.666	-93.85
343.046	-93.85
343.427	-14.43
343.807	-56.62
344.188	-31.8
344.568	-26.84
344.949	2.95
345.329	-16.91
345.71	79.89
346.09	42.66
346.47	134.5
346.85	184.14
347.23	144.43
347.611	184.14
347.991	248.68
348.371	206.48
348.751	360.37
349.131	365.33
349.511	350.44
349.891	392.64
350.27	419.94
350.65	367.82
351.03	578.8
351.41	472.07
351.79	514.26
352.169	417.46
352.549	472.07
352.928	496.89
353.308	474.55
353.687	429.87
354.067	481.99
354.446	504.33
354.826	496.89
355.205	509.3
355.584	486.96
355.964	504.33
356.343	539.08
356.722	511.78
357.101	506.81
357.48	447.24
357.859	499.37
358.238	556.46
358.617	459.65
358.996	551.49
359.375	526.67
359.754	516.74
360.133	596.17
360.512	511.78
360.891	504.33
361.269	526.67
361.648	546.53
362.027	506.81
362.405	489.44
362.784	534.12
363.162	452.21
363.541	457.17
363.919	496.89
364.298	546.53
364.676	514.26
365.054	509.3
365.433	496.89
365.811	521.71
366.189	586.24
366.567	464.62
366.945	551.49
367.323	477.03
367.701	504.33
368.079	472.07
368.457	449.73
368.835	539.08
369.213	447.24
369.591	454.69
369.969	449.73
370.346	606.1
370.724	521.71
371.102	516.74
371.479	479.51
371.857	491.92
372.235	457.17
372.612	509.3
372.99	477.03
373.367	501.85
373.744	424.91
374.122	481.99
374.499	571.35
374.876	477.03
375.254	544.05
375.631	544.05
376.008	553.97
376.385	494.4
376.762	481.99
377.139	499.37
377.516	499.37
377.893	459.65
378.27	494.4
378.647	563.9
379.024	521.71
379.4	442.28
379.777	462.14
380.154	454.69
380.53	553.97
380.907	504.33
381.284	499.37
381.66	539.08
382.037	539.08
382.413	489.44
382.79	534.12
383.166	536.6
383.542	501.85
383.919	511.78
384.295	467.1
384.671	524.19
385.047	501.85
385.423	519.23
385.799	509.3
386.176	536.6
386.552	529.15
386.928	578.8
387.303	516.74
387.679	511.78
388.055	521.71
388.431	551.49
388.807	591.21
389.183	591.21
389.558	529.15
389.934	568.87
390.309	578.8
390.685	563.9
391.061	628.44
391.436	521.71
391.811	576.31
392.187	481.99
392.562	623.47
392.938	581.28
393.313	583.76
393.688	611.06
394.063	608.58
394.438	608.58
394.814	583.76
395.189	633.4
395.564	583.76
395.939	566.39
396.314	576.31
396.689	539.08
397.063	613.55
397.438	583.76
397.813	486.96
398.188	566.39
398.563	586.24
398.937	598.65
399.312	514.26
399.686	616.03
400.061	536.6
400.435	655.74
400.81	620.99
401.184	588.72
401.559	571.35
401.933	630.92
402.307	586.24
402.682	618.51
403.056	531.64
403.43	737.65
403.804	1035.5
404.178	1092.59
404.552	814.6
404.926	668.15
405.3	596.17
405.674	635.88
406.048	620.99
406.422	625.96
406.796	655.74
407.169	769.92
407.543	695.45
407.917	623.47
408.291	670.63
408.664	645.81
409.038	658.22
409.411	690.49
409.785	688.01
410.158	762.47
410.531	740.13
410.905	705.38
411.278	722.76
411.651	789.77
412.025	692.97
412.398	747.58
412.771	869.2
413.144	802.19
413.517	812.11
413.89	1437.6
414.263	923.81
414.636	831.97
415.009	861.76
415.382	921.33
415.755	921.33
416.127	943.67
416.5	1040.47
416.873	961.04
417.245	906.43
417.618	1090.11
417.991	1176.98
418.363	1105
418.736	1159.61
419.108	1276.27
419.48	1278.75
419.853	1258.89
420.225	1420.23
420.597	1452.5
420.97	1517.03
421.342	1606.39
421.714	1631.21
422.086	1663.48
422.458	1827.29
422.83	2003.52
423.202	1953.88
423.574	2115.22
423.946	2281.52
424.318	2512.35
424.69	2559.51
425.061	2688.58
425.433	2636.46
425.805	2827.58
426.177	2993.88
426.548	3284.29
426.92	3502.71
427.291	3592.07
427.663	3696.32
428.034	4018.99
428.406	4033.88
428.777	4301.95
429.148	4465.77
429.519	4666.82
429.891	4952.26
430.262	5108.64
430.633	5282.38
431.004	5672.07
431.375	5942.62
431.746	6133.75
432.117	6511.02
432.488	6851.07
432.859	7039.71
433.23	7255.66
433.601	7558.47
433.971	7901
434.342	8394.94
434.713	9854.42
435.083	10919.24
435.454	11651.46
435.825	10715.71
436.195	10819.96
436.566	10765.35
436.936	11296.52
437.306	11961.73
437.677	12425.88
438.047	13128.32
438.417	13418.72
438.788	14463.69
439.158	14885.64
439.528	16042.31
439.898	16104.36
440.268	17397.53
440.638	18162.02
441.008	19291.38
441.378	19844.89
441.748	20785.61
442.118	21912.48
442.487	23267.71
442.857	23232.96
443.227	24243.18
443.597	25087.09
443.966	26082.42
444.336	27122.42
444.705	27204.33
445.075	28845
445.444	28959.18
445.814	29626.86
446.183	30234.98
446.552	30535.31
446.922	31180.66
447.291	30557.65
447.66	31299.8
448.029	31175.7
448.398	31242.71
448.768	31337.03
449.137	31044.14
449.506	30820.75
449.875	30659.42
450.243	29386.1
450.612	29264.48
450.981	28944.28
451.35	28495.02
451.719	28112.78
452.087	26943.71
452.456	26536.64
452.825	26280.99
453.193	25829.24
453.562	24888.53
453.93	24977.88
454.299	24332.53
454.667	23486.14
455.035	23424.08
455.404	22649.67
455.772	22207.85
456.14	22212.82
456.508	21751.15
456.877	21118.21
457.245	20532.43
457.613	20266.85
457.981	20040.98
458.349	20033.53
458.717	19509.81
459.085	19574.34
459.452	19241.74
459.82	19010.9
460.188	18817.3
460.556	19370.81
460.923	19005.94
461.291	18720.5
461.659	18802.41
462.026	18675.82
462.394	18601.36
462.761	18690.71
463.128	19075.44
463.496	18946.37
463.863	18968.71
464.23	19179.69
464.598	19671.14
464.965	19628.95
465.332	20318.97
465.699	20435.63
466.066	20524.99
466.433	20740.93
466.8	21421.03
467.167	21999.36
467.534	22458.55
467.901	22806.04
468.268	23252.82
468.635	23985.04
469.001	24337.5
469.368	24682.51
469.735	25546.28
470.101	26027.81
470.468	26834.5
470.834	27348.29
471.201	27824.85
471.567	29011.3
471.934	29396.03
472.3	29986.77
472.666	30954.79
473.032	31426.39
473.399	31845.86
473.765	33059.61
474.131	33623.05
474.497	34285.77
474.863	34879
475.229	35417.61
475.595	35889.21
475.961	36936.66
476.327	37102.96
476.693	37867.45
477.058	37892.27
477.424	38986.88
477.79	39267.36
478.156	40101.34
478.521	40160.91
478.887	40967.6
479.252	41389.55
479.618	41660.1
479.983	41694.85
480.348	42067.17
480.714	43099.72
481.079	42933.42
481.444	43606.07
481.81	43107.17
482.175	43288.36
482.54	43199.01
482.905	44112.42
483.27	44588.99
483.635	45147.46
484	45447.8
484.365	45904.5
484.73	46495.24
485.095	47071.09
485.459	47170.38
485.824	47694.1
486.189	48632.34
486.553	49831.19
486.918	50044.65
487.283	50307.76
487.647	51020.12
488.012	51380.02
488.376	51926.09
488.74	51973.25
489.105	52720.36
489.469	53184.51
489.833	53395.49
490.198	53906.81
490.562	54435.49
490.926	54358.55
491.29	54703.56
491.654	54750.72
492.018	55204.95
492.382	55065.95
492.746	55564.85
493.11	55800.65
493.474	55830.44
493.837	55748.53
494.201	55803.13
494.565	55805.62
494.928	55813.06
495.292	55495.35
495.656	55381.18
496.019	55294.3
496.383	55597.12
496.746	54812.77
497.109	55011.34
497.473	54775.54
497.836	53981.27
498.199	53934.11
498.563	53541.94
498.926	53115.02
499.289	52278.55
499.652	51533.92
500.015	51821.84
500.378	50757.02
500.741	50225.85
501.104	49947.85
501.467	50007.42
501.829	49039.4
502.192	49076.63
502.555	48791.19
502.918	47927.42
503.28	47465.75
503.643	46902.31
504.005	46197.39
504.368	46291.71
504.73	45651.33
505.093	45663.74
505.455	44678.34
505.817	44291.13
506.18	44104.98
506.542	43576.29
506.904	43814.57
507.266	42891.23
507.628	42419.63
507.991	42230.99
508.353	41878.53
508.715	41198.43
509.076	40900.58
509.438	40550.6
509.8	40322.25
510.162	40190.7
510.524	40004.54
510.885	39403.87
511.247	39029.07
511.609	38219.91
511.97	38676.61
512.332	38478.05
512.693	37924.54
513.055	37862.48
513.416	37611.79
513.778	37408.26
514.139	36584.2
514.5	37289.12
514.861	37070.69
515.223	36690.93
515.584	36400.53
515.945	36946.59
516.306	36623.91
516.667	36385.63
517.028	36494.85
517.389	36065.44
517.75	36517.18
518.11	36499.81
518.471	35819.71
518.832	35854.46
519.193	36028.21
519.553	35842.05
519.914	35469.74
520.274	35874.32
520.635	35608.73
520.995	35273.65
521.356	35474.7
521.716	35094.94
522.076	35320.81
522.437	35377.9
522.797	35243.86
523.157	35112.31
523.517	35437.47
523.877	35228.97
524.238	35072.6
524.598	35447.4
524.958	35447.4
525.317	34496.75
525.677	35027.92
526.037	35219.04
526.397	35300.95
526.757	35201.67
527.116	34831.84
527.476	34898.85
527.836	35027.92
528.195	35030.4
528.555	35129.69
528.914	35300.95
529.274	34754.89
529.633	35380.38
529.993	35281.1
530.352	35032.89
530.711	35144.58
531.07	34350.31
531.429	34926.16
531.789	34712.69
532.148	34886.44
532.507	35214.08
532.866	34936.08
533.225	34727.59
533.584	35003.1
533.942	35243.86
534.301	34856.66
534.66	34821.91
535.019	34836.8
535.377	35159.47
535.736	35070.12
536.095	34668.02
536.453	34874.03
536.812	34514.13
537.17	34978.28
537.528	34908.78
537.887	34548.88
538.245	34727.59
538.603	34953.46
538.962	34834.32
539.32	35509.45
539.678	35199.19
540.036	35154.51
540.394	35372.93
540.752	35427.54
541.11	35740.29
541.468	35559.09
541.826	35650.93
542.184	35492.07
542.541	35673.27
542.899	35055.22
543.257	35824.68
543.614	35849.5
543.972	35363.01
544.33	35613.7
544.687	36107.64
545.045	37182.39
545.402	37711.08
545.759	37452.94
546.117	36437.76
546.474	35794.89
546.831	35519.38
547.188	35648.45
547.546	35444.91
547.903	35618.66
548.26	35181.81
548.617	35204.15
548.974	35680.71
549.331	35300.95
549.687	35119.76
550.044	35045.3
550.401	34960.9
550.758	35313.36
551.114	34762.34
551.471	34918.71
551.828	35045.3
552.184	34973.32
552.541	35323.29
552.897	35762.62
553.254	35638.52
553.61	35407.68
553.966	35492.07
554.323	35710.5
554.679	35782.48
555.035	35636.04
555.391	35668.3
555.747	35353.08
556.103	35988.5
556.459	35633.55
556.815	35648.45
557.171	35402.72
557.527	35149.54
557.883	35660.86
558.239	35722.91
558.594	35516.9
558.95	35933.89
559.306	35896.66
559.661	36405.49
560.017	36259.05
560.372	35881.77
560.728	35951.26
561.083	36236.71
561.438	36132.46
561.794	36477.47
562.149	36323.58
562.504	36631.36
562.859	36539.52
563.215	36690.93
563.57	36447.69
563.925	36698.38
564.28	36688.45
564.635	36790.22
564.99	37110.41
565.344	36611.5
565.699	36601.58
566.054	36487.4
566.409	36951.55
566.763	37016.09
567.118	37115.37
567.473	36906.87
567.827	37117.85
568.182	36678.52
568.536	36983.82
568.891	37172.46
569.245	37455.42
569.599	37745.83
569.953	37653.99
570.308	37480.24
570.662	37485.2
571.016	37666.4
571.37	37343.72
571.724	37467.83
572.078	37748.31
572.432	37472.79
572.786	38157.85
573.14	37579.52
573.494	37507.54
573.847	37649.02
574.201	38120.62
574.555	38036.23
574.908	37822.77
575.262	37671.36
575.615	37658.95
575.969	38440.81
576.322	38219.91
576.676	38028.79
577.029	38413.51
577.382	38105.73
577.736	37591.94
578.089	38346.49
578.442	37872.41
578.795	37931.98
579.148	38001.48
579.501	38100.77
579.854	38214.94
580.207	38569.88
580.56	37869.93
580.913	37855.04
581.265	37869.93
581.618	37455.42
581.971	37582.01
582.324	37003.68
582.676	37522.44
583.029	37083.1
583.381	37477.76
583.734	37902.2
584.086	37420.67
584.438	37445.49
584.791	37023.53
585.143	37075.66
585.495	37279.19
585.847	37286.64
586.2	37433.08
586.552	37043.39
586.904	37033.46
587.256	37308.98
587.608	37006.16
587.959	36641.29
588.311	36934.18
588.663	36666.11
589.015	36589.16
589.367	36924.25
589.718	36460.1
590.07	36561.86
590.421	36199.47
590.773	36482.43
591.124	36497.33
591.476	36139.9
591.827	36504.77
592.179	35976.09
592.53	36072.89
592.881	36184.58
593.232	36095.23
593.584	35943.82
593.935	35879.28
594.286	36040.62
594.637	35914.03
594.988	36003.39
595.339	36125.01
595.689	35745.25
596.04	35941.34
596.391	35688.16
596.742	35653.41
597.092	35561.57
597.443	35866.87
597.794	35663.34
598.144	35978.57
598.495	35474.7
598.845	35864.39
599.196	35988.5
599.546	35618.66
599.896	35715.46
600.247	35708.02
600.597	35668.3
600.947	35502
601.297	35700.57
601.647	35936.37
601.997	35894.18
602.347	35859.43
602.697	35844.53
603.047	35695.61
603.397	35472.22
603.747	36055.51
604.096	35462.29
604.446	35747.73
604.796	36090.26
605.145	36107.64
605.495	36127.49
605.844	36455.13
606.194	36311.17
606.543	36482.43
606.893	36157.28
607.242	36450.17
607.591	36584.2
607.94	36035.66
608.29	36584.2
608.639	36877.09
608.988	36184.58
609.337	37160.05
609.686	36926.73
610.035	37547.26
610.384	38026.3
610.733	37944.39
611.081	37954.32
611.43	38373.8
611.779	37800.43
612.127	37624.2
612.476	37661.43
612.825	37229.55
613.173	37366.06
613.522	37480.24
613.87	37532.36
614.218	37713.56
614.567	37596.9
614.915	37517.47
615.263	37266.78
615.611	37514.99
615.96	37343.72
616.308	37026.02
616.656	37567.11
617.004	37725.97
617.352	37050.84
617.7	37356.14
618.047	37291.6
618.395	37423.15
618.743	37438.04
619.091	37457.9
619.438	37552.22
619.786	37306.49
620.134	36740.57
620.481	37323.87
620.829	37567.11
621.176	37425.63
621.523	37165.01
621.871	36981.34
622.218	36805.11
622.565	37492.65
622.912	37100.48
623.259	37246.92
623.607	36837.38
623.954	37400.81
624.301	36959
624.648	36827.45
624.994	37522.44
625.341	36909.36
625.688	37182.39
626.035	37234.51
626.382	36780.29
626.728	36993.75
627.075	36792.7
627.421	36611.5
627.768	36571.79
628.114	36455.13
628.461	36303.72
628.807	36157.28
629.154	36008.35
629.5	35879.28
629.846	35814.75
630.192	35928.93
630.538	36157.28
630.884	35457.33
631.231	35849.5
631.577	35097.42
631.922	35313.36
632.268	34985.73
632.614	34804.53
632.96	34727.59
633.306	34725.1
633.651	34161.67
633.997	34568.73
634.343	34181.52
634.688	34037.56
635.034	33963.1
635.379	34017.7
635.725	33923.38
636.07	33546.11
636.415	33305.34
636.761	33486.53
637.106	33017.42
637.451	33104.29
637.796	32523.48
638.141	32543.33
638.486	32404.34
638.831	32027.06
639.176	32347.25
639.521	31763.95
639.866	31669.63
640.211	31624.96
640.555	31381.71
640.9	31399.08
641.245	31170.73
641.589	30845.58
641.934	30803.38
642.278	30413.69
642.623	29912.3
642.967	30066.19
643.312	29639.27
643.656	29693.88
644	29557.36
644.344	29237.17
644.689	29333.97
645.033	29368.72
645.377	28611.68
645.721	28847.48
646.065	28735.79
646.409	27976.26
646.753	28068.1
647.096	27901.8
647.44	27668.48
647.784	27546.86
648.128	27365.67
648.471	27378.08
648.815	27482.32
649.158	27112.49
649.502	26933.78
649.845	26588.77
650.189	26288.43
650.532	26628.48
650.875	25891.3
651.218	25851.58
651.562	25918.6
651.905	25429.62
652.248	25303.04
652.591	25355.16
652.934	25245.95
653.277	24997.74
653.62	24488.91
653.963	24799.17
654.305	24238.21
654.648	24173.68
654.991	23965.18
655.334	23632.58
655.676	23498.55
656.019	23734.35
656.361	23443.94
656.704	23195.73
657.046	23138.64
657.389	23051.77
657.731	22555.35
658.073	22478.4
658.415	22359.26
658.757	22247.57
659.1	21964.61
659.442	21746.18
659.784	21689.09
660.126	21401.17
660.468	21190.19
660.809	21123.17
661.151	20616.82
661.493	20857.59
661.835	20634.2
662.177	20577.11
662.518	20162.6
662.86	20281.74
663.201	20132.81
663.543	19911.91
663.884	20063.31
664.226	19710.86
664.567	19288.9
664.908	19204.51
665.249	18996.01
665.591	18767.66
665.932	18725.46
666.273	18484.7
666.614	18730.42
666.955	18382.93
667.296	18333.29
667.637	18070.18
667.978	17839.35
668.318	17740.06
668.659	17313.14
669	17546.46
669.341	17146.84
669.681	17362.79
670.022	17194
670.362	16712.47
670.703	16873.81
671.043	16466.75
671.383	16270.66
671.724	16265.69
672.064	16188.75
672.404	15848.7
672.744	15774.24
673.085	15530.99
673.425	15424.26
673.765	15431.71
674.105	15359.73
674.444	14975
674.784	15076.77
675.124	14816.15
675.464	14848.41
675.804	14878.2
676.143	14456.24
676.483	14210.51
676.823	14287.46
677.162	14136.05
677.501	13853.09
677.841	13786.07
678.18	13488.22
678.52	13230.08
678.859	13376.53
679.198	13145.69
679.537	13053.85
679.876	12899.96
680.215	13038.96
680.555	12837.91
680.894	12609.56
681.232	12254.61
681.571	12018.81
681.91	12172.7
682.249	12053.56
682.588	11830.17
682.926	11755.71
683.265	11703.59
683.604	11601.82
683.942	11507.5
684.281	11291.56
684.619	11249.36
684.957	11167.45
685.296	11112.85
685.634	10698.33
685.972	10693.37
686.31	10594.09
686.649	10765.35
686.987	10420.34
687.325	10621.39
687.663	10191.99
688.001	10256.52
688.338	10132.42
688.676	9995.9
689.014	9851.94
689.352	9956.19
689.69	9784.92
690.027	9578.91
690.365	9539.19
690.702	9561.53
691.04	9479.62
691.377	9330.7
691.715	9206.59
692.052	9166.88
692.389	9084.97
692.726	9181.77
693.064	8948.45
693.401	8896.33
693.738	8663.01
694.075	8638.19
694.412	8620.81
694.749	8459.48
695.086	8638.19
695.423	8620.81
695.759	8385.01
696.096	8355.23
696.433	8434.66
696.769	8246.02
697.106	8414.8
697.443	8313.03
697.779	8268.35
698.116	8104.54
698.452	8149.21
698.788	8238.57
699.125	8504.15
699.461	8352.75
699.797	8389.98
700.133	8193.89
700.469	8337.85
700.805	8437.14
701.141	8444.58
701.477	8345.3
701.813	8255.94
702.149	8293.18
702.485	8347.78
702.82	8417.28
703.156	8461.96
703.492	8422.25
703.827	8608.4
704.163	8308.07
704.498	8794.56
704.834	8667.97
705.169	8752.37
705.505	8598.47
705.84	8908.74
706.175	8903.77
706.51	9005.54
706.845	9008.02
707.18	9045.25
707.515	9154.47
707.85	9008.02
708.185	9184.25
708.52	9333.18
708.855	9685.64
709.19	9765.06
709.525	9799.81
709.859	9755.14
710.194	9953.7
710.529	10174.61
710.863	10139.86
711.198	10455.09
711.532	10457.57
711.866	10824.92
712.201	10770.32
712.535	11075.61
712.869	10762.87
713.203	11284.11
713.537	10956.47
713.872	11236.95
714.206	11594.37
714.54	11567.07
714.873	11802.87
715.207	11941.87
715.541	12339.01
715.875	12587.22
716.209	12698.91
716.542	12939.68
716.876	13222.64
717.21	13282.21
717.543	13589.99
717.877	13731.47
718.21	14049.18
718.543	14190.66
718.877	14299.87
719.21	14930.32
719.543	14684.59
719.876	15439.15
720.209	15801.54
720.542	15662.54
720.875	16171.37
721.208	16173.86
721.541	16814.24
721.874	17030.18
722.207	17303.21
722.54	17303.21
722.872	17881.54
723.205	18157.06
723.538	18874.39
723.87	18708.09
724.203	19130.04
724.535	19440.31
724.868	19700.93
725.2	20314.01
725.532	20770.71
725.865	21160.4
726.197	21152.96
726.529	21624.56
726.861	21917.45
727.193	22076.3
727.525	22413.87
727.857	23086.52
728.189	22845.75
728.521	23215.59
728.853	23746.76
729.184	23940.36
729.516	23987.52
729.848	24220.84
730.179	24657.69
730.511	24660.17
730.842	24513.73
731.174	24697.4
731.505	24451.67
731.836	24421.89
732.168	24580.74
732.499	24205.95
732.83	24402.03
733.161	24114.11
733.492	23612.72
733.823	23349.62
734.154	22925.18
734.485	23002.13
734.816	21924.89
735.147	21733.77
735.478	21517.83
735.808	20760.79
736.139	20068.28
736.47	19623.98
736.8	19425.41
737.131	18551.71
737.461	18119.83
737.792	17385.12
738.122	16831.61
738.452	16221.02
738.782	15645.17
739.113	15061.87
739.443	14868.27
739.773	14277.53
740.103	13967.27
740.433	13311.99
740.763	12912.37
741.093	12309.22
741.423	12281.92
741.752	11877.33
742.082	11380.91
742.412	11097.95
742.742	10993.71
743.071	10628.84
743.401	10410.41
