Data from FLMS025871_15-55-17-252.txt Node
Date: Tue Nov 17 15:55:17 GMT 2020
User: php20df
Spectrometer: FLMS02587
Trigger mode: 0
Integration Time (sec): 1.000000E-1
Scans to average: 1
Electric dark correction enabled: true
Nonlinearity correction enabled: false
Boxcar width: 0
XAxis mode: Wavelengths
Number of Pixels in Spectrum: 2048
>>>>>Begin Spectral Data<<<<<
339.619	-36.3
340	-36.3
340.381	-36.3
340.762	-135.58
341.143	-90.91
341.524	-140.55
341.904	-113.25
342.285	-28.85
342.666	-105.8
343.046	-108.28
343.427	-23.89
343.807	-16.44
344.188	-33.82
344.568	3.41
344.949	30.72
345.329	38.16
345.71	43.13
346.09	67.95
346.47	53.05
346.85	154.82
347.23	179.64
347.611	142.41
347.991	179.64
348.371	201.98
348.751	241.69
349.131	199.5
349.511	187.09
349.891	288.85
350.27	306.23
350.65	306.23
351.03	283.89
351.41	264.03
351.79	303.75
352.169	408
352.549	313.68
352.928	415.44
353.308	311.19
353.687	410.48
354.067	368.28
354.446	435.3
354.826	403.03
355.205	425.37
355.584	385.66
355.964	388.14
356.343	313.68
356.722	370.76
357.101	378.21
357.48	328.57
357.859	412.96
358.238	400.55
358.617	345.94
358.996	417.92
359.375	422.89
359.754	380.69
360.133	380.69
360.512	283.89
360.891	358.35
361.269	370.76
361.648	390.62
362.027	336.01
362.405	385.66
362.784	353.39
363.162	345.94
363.541	306.23
363.919	348.43
364.298	343.46
364.676	410.48
365.054	373.25
365.433	358.35
365.811	343.46
366.189	326.09
366.567	360.84
366.945	236.73
367.323	442.75
367.701	395.59
368.079	383.17
368.457	390.62
368.835	348.43
369.213	390.62
369.591	378.21
369.969	425.37
370.346	345.94
370.724	393.1
371.102	286.37
371.479	328.57
371.857	308.71
372.235	373.25
372.612	380.69
372.99	373.25
373.367	343.46
373.744	343.46
374.122	345.94
374.499	301.27
374.876	301.27
375.254	301.27
375.631	360.84
376.008	273.96
376.385	390.62
376.762	355.87
377.139	296.3
377.516	365.8
377.893	360.84
378.27	326.09
378.647	323.6
379.024	333.53
379.4	328.57
379.777	345.94
380.154	333.53
380.53	370.76
380.907	331.05
381.284	363.32
381.66	348.43
382.037	345.94
382.413	321.12
382.79	355.87
383.166	445.23
383.542	412.96
383.919	398.07
384.295	405.51
384.671	368.28
385.047	323.6
385.423	400.55
385.799	373.25
386.176	363.32
386.552	298.78
386.928	360.84
387.303	465.08
387.679	316.16
388.055	380.69
388.431	368.28
388.807	340.98
389.183	373.25
389.558	328.57
389.934	390.62
390.309	343.46
390.685	385.66
391.061	365.8
391.436	408
391.811	355.87
392.187	365.8
392.562	408
392.938	333.53
393.313	353.39
393.688	412.96
394.063	363.32
394.438	328.57
394.814	420.41
395.189	336.01
395.564	350.91
395.939	365.8
396.314	388.14
396.689	355.87
397.063	363.32
397.438	385.66
397.813	348.43
398.188	398.07
398.563	338.5
398.937	415.44
399.312	383.17
399.686	343.46
400.061	408
400.435	447.71
400.81	288.85
401.184	380.69
401.559	360.84
401.933	363.32
402.307	398.07
402.682	393.1
403.056	395.59
403.43	420.41
403.804	519.69
404.178	522.17
404.552	445.23
404.926	462.6
405.3	390.62
405.674	385.66
406.048	395.59
406.422	393.1
406.796	405.51
407.169	385.66
407.543	363.32
407.917	403.03
408.291	326.09
408.664	482.46
409.038	492.39
409.411	390.62
409.785	410.48
410.158	452.67
410.531	440.26
410.905	415.44
411.278	390.62
411.651	420.41
412.025	365.8
412.398	311.19
412.771	323.6
413.144	455.16
413.517	445.23
413.89	934.2
414.263	410.48
414.636	365.8
415.009	348.43
415.382	378.21
415.755	477.49
416.127	420.41
416.5	417.92
416.873	348.43
417.245	417.92
417.618	333.53
417.991	445.23
418.363	388.14
418.736	388.14
419.108	403.03
419.48	435.3
419.853	398.07
420.225	427.85
420.597	437.78
420.97	475.01
421.342	368.28
421.714	383.17
422.086	412.96
422.458	363.32
422.83	437.78
423.202	467.57
423.574	390.62
423.946	375.73
424.318	499.83
424.69	398.07
425.061	417.92
425.433	370.76
425.805	442.75
426.177	445.23
426.548	437.78
426.92	393.1
427.291	450.19
427.663	455.16
428.034	398.07
428.406	492.39
428.777	425.37
429.148	455.16
429.519	437.78
429.891	422.89
430.262	479.98
430.633	432.82
431.004	422.89
431.375	472.53
431.746	365.8
432.117	385.66
432.488	628.9
432.859	430.33
433.23	435.3
433.601	546.99
433.971	512.24
434.342	484.94
434.713	728.19
435.083	1053.34
435.454	1117.88
435.825	693.44
436.195	512.24
436.566	455.16
436.936	408
437.306	425.37
437.677	482.46
438.047	440.26
438.417	502.32
438.788	442.75
439.158	527.14
439.528	435.3
439.898	529.62
440.268	460.12
440.638	435.3
441.008	532.1
441.378	517.21
441.748	430.33
442.118	484.94
442.487	527.14
442.857	539.55
443.227	512.24
443.597	440.26
443.966	502.32
444.336	492.39
444.705	460.12
445.075	544.51
445.444	489.91
445.814	529.62
446.183	410.48
446.552	529.62
446.922	546.99
447.291	529.62
447.66	539.55
448.029	465.08
448.398	509.76
448.768	517.21
449.137	475.01
449.506	599.12
449.875	502.32
450.243	499.83
450.612	497.35
450.981	586.71
451.35	489.91
451.719	499.83
452.087	484.94
452.456	556.92
452.825	596.64
453.193	450.19
453.562	534.58
453.93	517.21
454.299	502.32
454.667	487.42
455.035	589.19
455.404	527.14
455.772	527.14
456.14	524.65
456.508	457.64
456.877	549.48
457.245	566.85
457.613	507.28
457.981	522.17
458.349	611.53
458.717	529.62
459.085	512.24
459.452	576.78
459.82	579.26
460.188	534.58
460.556	599.12
460.923	569.33
461.291	551.96
461.659	574.3
462.026	566.85
462.394	643.8
462.761	584.23
463.128	658.69
463.496	551.96
463.863	596.64
464.23	681.03
464.598	626.42
464.965	698.4
465.332	594.15
465.699	666.13
466.066	882.08
466.433	681.03
466.8	728.19
467.167	735.63
467.534	601.6
467.901	715.78
468.268	688.47
468.635	688.47
469.001	695.92
469.368	718.26
469.735	661.17
470.101	698.4
470.468	728.19
470.834	854.77
471.201	817.54
471.567	728.19
471.934	802.65
472.3	842.36
472.666	869.67
473.032	857.26
473.399	877.11
473.765	834.92
474.131	988.81
474.497	956.54
474.863	946.61
475.229	971.43
475.595	1033.49
475.961	1115.4
476.327	1105.47
476.693	1140.22
477.058	1212.2
477.424	1281.7
477.79	1239.5
478.156	1304.04
478.521	1380.98
478.887	1356.16
479.252	1470.34
479.618	1549.76
479.983	1507.57
480.348	1644.08
480.714	1775.64
481.079	1802.94
481.444	1773.15
481.81	1961.79
482.175	1984.13
482.54	2046.18
482.905	2267.09
483.27	2435.88
483.635	2406.09
484	2651.82
484.365	2716.35
484.73	2798.26
485.095	3011.72
485.459	2981.94
485.824	3257.45
486.189	3468.43
486.553	3525.52
486.918	3716.64
487.283	4054.21
487.647	4180.79
488.012	4302.42
488.376	4443.9
488.74	4803.8
489.105	4927.91
489.469	5183.56
489.833	5315.12
490.198	5593.11
490.562	5794.16
490.926	5886
491.29	6072.16
491.654	6715.02
492.018	6973.16
492.382	7206.48
492.746	7660.7
493.11	8015.65
493.474	8139.75
493.837	8656.03
494.201	9055.65
494.565	9336.13
494.928	9902.04
495.292	10217.27
495.656	11001.62
496.019	11458.32
496.383	11624.63
496.746	12200.47
497.109	12947.59
497.473	13389.4
497.836	14054.61
498.199	14625.49
498.563	15474.37
498.926	15911.22
499.289	16747.69
499.652	17402.96
500.015	18303.97
500.378	19016.33
500.741	20262.35
501.104	20681.82
501.467	21426.46
501.829	22511.13
502.192	23613.19
502.555	24866.65
502.918	25412.71
503.28	26589.23
503.643	27584.56
504.005	28706.47
504.368	29902.84
504.73	30816.26
505.093	32546.28
505.455	33392.68
505.817	34564.23
506.18	35733.3
506.542	37282.14
506.904	38632.4
507.266	39563.19
507.628	41007.78
507.991	41749.93
508.353	43780.29
508.715	44708.59
509.076	45458.19
509.438	47411.61
509.8	48138.86
510.162	49198.72
510.524	49707.55
510.885	50405.02
511.247	51164.55
511.609	52112.71
511.97	53075.77
512.332	53492.76
512.693	54026.41
513.055	54758.63
513.416	54890.19
513.778	55416.39
514.139	55619.92
514.5	56317.4
514.861	56386.89
515.223	57354.91
515.584	56873.39
515.945	57168.76
516.306	57250.67
516.667	57161.31
517.028	57213.44
517.389	57027.28
517.75	57173.72
518.11	57315.2
518.471	56709.57
518.832	56416.68
519.193	56394.34
519.553	55920.26
519.914	55927.71
520.274	55396.53
520.635	55364.27
520.995	54433.48
521.356	54023.93
521.716	53922.16
522.076	53467.94
522.437	52688.56
522.797	52152.42
523.157	51467.36
523.517	50764.93
523.877	50310.7
524.238	49449.41
524.598	48699.82
524.958	48168.65
525.317	47265.16
525.677	46622.3
526.037	45713.85
526.397	44460.38
526.757	44040.91
527.116	43077.85
527.476	42370.45
527.836	41811.98
528.195	41069.83
528.555	40250.73
528.914	39302.57
529.274	38808.63
529.633	38059.04
529.993	37041.37
530.352	37009.11
530.711	36346.38
531.07	35678.7
531.429	34668.48
531.789	34467.43
532.148	33948.67
532.507	33489.48
532.866	32881.37
533.225	32000.22
533.584	31610.53
533.942	30697.11
534.301	30069.14
534.66	29696.83
535.019	29175.58
535.377	28728.81
535.736	27984.17
536.095	27515.06
536.453	27031.05
536.812	26467.61
537.17	26095.29
537.528	25370.52
537.887	24983.31
538.245	24645.74
538.603	24340.45
538.962	23523.83
539.32	23573.48
539.678	22511.13
540.036	22287.75
540.394	22029.61
540.752	21627.51
541.11	21448.79
541.468	20768.7
541.826	20215.19
542.184	19813.09
542.541	19329.08
542.899	18639.05
543.257	18169.93
543.614	17777.76
543.972	17105.11
544.33	16938.81
544.687	16335.66
545.045	16422.53
545.402	15804.49
545.759	16010.5
546.117	15102.05
546.474	14444.3
546.831	13612.79
547.188	13374.51
547.546	13282.67
547.903	12724.2
548.26	12535.56
548.617	12163.24
548.974	11810.78
549.331	11587.39
549.687	11351.59
550.044	10582.14
550.401	10733.55
550.758	10497.75
551.114	10261.95
551.471	9892.12
551.828	9616.6
552.184	9224.43
552.541	9043.24
552.897	9142.52
553.254	8606.39
553.61	8358.18
553.966	8301.09
554.323	8013.16
554.679	7849.34
555.035	7705.38
555.391	7546.53
555.747	7402.57
556.103	7204
556.459	7077.41
556.815	6911.11
557.171	6796.93
557.527	6427.1
557.883	6357.6
558.239	6315.4
558.594	6027.48
558.95	6079.6
559.306	5881.04
559.661	5766.86
560.017	5665.09
560.372	5585.67
560.728	5424.33
561.083	5191.01
561.438	5133.92
561.794	4883.23
562.149	4853.44
562.504	4808.77
562.859	4657.36
563.215	4697.07
563.57	4478.65
563.925	4334.68
564.28	4178.31
564.635	4195.69
564.99	4121.22
565.344	4007.05
565.699	3964.85
566.054	3877.98
566.409	3617.36
566.763	3644.66
567.118	3528
567.473	3523.04
567.827	3532.97
568.182	3274.83
568.536	3331.91
568.891	3309.58
569.245	3182.99
569.599	3053.92
569.953	3048.95
570.308	2882.65
570.662	2967.05
571.016	2877.69
571.37	2823.08
571.724	2696.5
572.078	2738.69
572.432	2656.78
572.786	2557.5
573.14	2654.3
573.494	2500.41
573.847	2358.93
574.201	2281.98
574.555	2326.66
574.908	2222.41
575.262	2061.08
575.615	2212.49
575.969	2190.15
576.322	2217.45
576.676	2120.65
577.029	2098.31
577.382	1976.69
577.736	2028.81
578.089	1974.2
578.442	1969.24
578.795	1884.85
579.148	1917.12
579.501	1750.81
579.854	1788.05
580.207	1706.14
580.56	1788.05
580.913	1733.44
581.265	1701.17
581.618	1579.55
581.971	1654.01
582.324	1544.8
582.676	1552.25
583.029	1512.53
583.381	1515.01
583.734	1582.03
584.086	1547.28
584.438	1482.75
584.791	1388.43
585.143	1472.82
585.495	1398.36
585.847	1415.73
586.2	1472.82
586.552	1256.88
586.904	1348.71
587.256	1430.62
587.608	1269.29
587.959	1179.93
588.311	1264.32
588.663	1326.37
589.015	1207.23
589.367	1152.63
589.718	1202.27
590.07	1070.72
590.421	1095.54
590.773	1040.93
591.124	1083.13
591.476	1033.49
591.827	1088.09
592.179	1040.93
592.53	1137.73
592.881	1078.16
593.232	978.88
593.584	1006.18
593.935	904.42
594.286	976.4
594.637	986.33
594.988	976.4
595.339	956.54
595.689	904.42
596.04	817.54
596.391	887.04
596.742	867.19
597.092	837.4
597.443	889.52
597.794	837.4
598.144	966.47
598.495	802.65
598.845	812.58
599.196	837.4
599.546	787.76
599.896	862.22
600.247	820.03
600.597	725.71
600.947	797.69
601.297	832.44
601.647	810.1
601.997	723.22
602.347	676.06
602.697	698.4
603.047	705.85
603.397	638.83
603.747	715.78
604.096	646.28
604.446	668.62
604.796	616.49
605.145	743.08
605.495	715.78
605.844	646.28
606.194	718.26
606.543	671.1
606.893	556.92
607.242	690.96
607.591	685.99
607.94	733.15
608.29	668.62
608.639	700.88
608.988	797.69
609.337	820.03
609.686	1008.67
610.035	1318.93
610.384	1537.35
610.733	1587
611.081	1492.68
611.43	1353.68
611.779	1321.41
612.127	1132.77
612.476	993.77
612.825	971.43
613.173	906.9
613.522	934.2
613.87	820.03
614.218	889.52
614.567	864.7
614.915	663.65
615.263	690.96
615.611	693.44
615.96	683.51
616.308	641.31
616.656	651.24
617.004	643.8
617.352	616.49
617.7	671.1
618.047	638.83
618.395	529.62
618.743	571.81
619.091	621.46
619.438	584.23
619.786	499.83
620.134	579.26
620.481	653.72
620.829	559.4
621.176	606.56
621.523	589.19
621.871	554.44
622.218	596.64
622.565	628.9
622.912	566.85
623.259	504.8
623.607	616.49
623.954	537.07
624.301	599.12
624.648	596.64
624.994	561.89
625.341	527.14
625.688	631.39
626.035	648.76
626.382	576.78
626.728	604.08
627.075	611.53
627.421	564.37
627.768	554.44
628.114	507.28
628.461	576.78
628.807	509.76
629.154	551.96
629.5	601.6
629.846	695.92
630.192	646.28
630.538	614.01
630.884	574.3
631.231	638.83
631.577	576.78
631.922	601.6
632.268	507.28
632.614	542.03
632.96	489.91
633.306	422.89
633.651	455.16
633.997	477.49
634.343	440.26
634.688	475.01
635.034	494.87
635.379	467.57
635.725	472.53
636.07	504.8
636.415	512.24
636.761	482.46
637.106	432.82
637.451	460.12
637.796	512.24
638.141	519.69
638.486	435.3
638.831	450.19
639.176	455.16
639.521	519.69
639.866	499.83
640.211	492.39
640.555	494.87
640.9	422.89
641.245	479.98
641.589	430.33
641.934	465.08
642.278	437.78
642.623	435.3
642.967	400.55
643.312	450.19
643.656	447.71
644	422.89
644.344	408
644.689	460.12
645.033	435.3
645.377	378.21
645.721	475.01
646.065	462.6
646.409	316.16
646.753	462.6
647.096	412.96
647.44	408
647.784	420.41
648.128	403.03
648.471	465.08
648.815	435.3
649.158	442.75
649.502	470.05
649.845	420.41
650.189	393.1
650.532	452.67
650.875	470.05
651.218	415.44
651.562	435.3
651.905	440.26
652.248	321.12
652.591	539.55
652.934	467.57
653.277	412.96
653.62	450.19
653.963	425.37
654.305	460.12
654.648	368.28
654.991	355.87
655.334	445.23
655.676	437.78
656.019	375.73
656.361	353.39
656.704	408
657.046	412.96
657.389	442.75
657.731	408
658.073	395.59
658.415	388.14
658.757	380.69
659.1	420.41
659.442	427.85
659.784	432.82
660.126	452.67
660.468	450.19
660.809	385.66
661.151	477.49
661.493	455.16
661.835	504.8
662.177	440.26
662.518	398.07
662.86	462.6
663.201	427.85
663.543	398.07
663.884	440.26
664.226	477.49
664.567	410.48
664.908	388.14
665.249	378.21
665.591	430.33
665.932	482.46
666.273	400.55
666.614	432.82
666.955	408
667.296	494.87
667.637	385.66
667.978	460.12
668.318	360.84
668.659	353.39
669	432.82
669.341	427.85
669.681	360.84
670.022	365.8
670.362	430.33
670.703	420.41
671.043	408
671.383	415.44
671.724	348.43
672.064	380.69
672.404	400.55
672.744	378.21
673.085	398.07
673.425	363.32
673.765	390.62
674.105	465.08
674.444	432.82
674.784	472.53
675.124	450.19
675.464	410.48
675.804	422.89
676.143	430.33
676.483	385.66
676.823	430.33
677.162	375.73
677.501	301.27
677.841	440.26
678.18	437.78
678.52	445.23
678.859	412.96
679.198	370.76
679.537	331.05
679.876	383.17
680.215	477.49
680.555	420.41
680.894	395.59
681.232	420.41
681.571	435.3
681.91	437.78
682.249	336.01
682.588	482.46
682.926	385.66
683.265	457.64
683.604	437.78
683.942	363.32
684.281	345.94
684.619	422.89
684.957	383.17
685.296	338.5
685.634	415.44
685.972	472.53
686.31	415.44
686.649	410.48
686.987	383.17
687.325	388.14
687.663	350.91
688.001	427.85
688.338	460.12
688.676	390.62
689.014	383.17
689.352	395.59
689.69	432.82
690.027	400.55
690.365	455.16
690.702	375.73
691.04	323.6
691.377	479.98
691.715	336.01
692.052	432.82
692.389	368.28
692.726	395.59
693.064	370.76
693.401	477.49
693.738	345.94
694.075	422.89
694.412	408
694.749	415.44
695.086	368.28
695.423	353.39
695.759	400.55
696.096	437.78
696.433	353.39
696.769	363.32
697.106	405.51
697.443	326.09
697.779	408
698.116	410.48
698.452	375.73
698.788	363.32
699.125	378.21
699.461	388.14
699.797	360.84
700.133	437.78
700.469	415.44
700.805	348.43
701.141	328.57
701.477	445.23
701.813	447.71
702.149	427.85
702.485	383.17
702.82	442.75
703.156	373.25
703.492	417.92
703.827	398.07
704.163	435.3
704.498	425.37
704.834	430.33
705.169	373.25
705.505	383.17
705.84	408
706.175	462.6
706.51	489.91
706.845	395.59
707.18	425.37
707.515	348.43
707.85	455.16
708.185	430.33
708.52	398.07
708.855	427.85
709.19	427.85
709.525	378.21
709.859	470.05
710.194	393.1
710.529	403.03
710.863	452.67
711.198	383.17
711.532	390.62
711.866	445.23
712.201	410.48
712.535	430.33
712.869	440.26
713.203	370.76
713.537	447.71
713.872	385.66
714.206	355.87
714.54	390.62
714.873	360.84
715.207	417.92
715.541	393.1
715.875	388.14
716.209	445.23
716.542	450.19
716.876	378.21
717.21	350.91
717.543	383.17
717.877	422.89
718.21	385.66
718.543	417.92
718.877	395.59
719.21	390.62
719.543	345.94
719.876	368.28
720.209	452.67
720.542	348.43
720.875	380.69
721.208	422.89
721.541	383.17
721.874	331.05
722.207	393.1
722.54	345.94
722.872	336.01
723.205	380.69
723.538	385.66
723.87	425.37
724.203	408
724.535	393.1
724.868	425.37
725.2	373.25
725.532	313.68
725.865	363.32
726.197	390.62
726.529	403.03
726.861	345.94
727.193	425.37
727.525	365.8
727.857	336.01
728.189	499.83
728.521	388.14
728.853	343.46
729.184	308.71
729.516	398.07
729.848	410.48
730.179	393.1
730.511	435.3
730.842	388.14
731.174	298.78
731.505	410.48
731.836	311.19
732.168	278.93
732.499	373.25
732.83	437.78
733.161	390.62
733.492	445.23
733.823	378.21
734.154	450.19
734.485	452.67
734.816	370.76
735.147	398.07
735.478	393.1
735.808	415.44
736.139	321.12
736.47	430.33
736.8	378.21
737.131	425.37
737.461	403.03
737.792	345.94
738.122	350.91
738.452	383.17
738.782	403.03
739.113	470.05
739.443	358.35
739.773	355.87
740.103	390.62
740.433	360.84
740.763	370.76
741.093	378.21
741.423	348.43
741.752	400.55
742.082	400.55
742.412	390.62
742.742	358.35
743.071	393.1
743.401	400.55
743.73	395.59
744.06	355.87
744.389	363.32
744.718	395.59
745.048	395.59
745.377	412.96
745.706	378.21
746.035	390.62
746.364	427.85
746.693	412.96
747.022	380.69
747.351	388.14
747.68	390.62
748.009	353.39
748.338	400.55
748.666	380.69
748.995	368.28
749.323	390.62
749.652	450.19
749.981	370.76
750.309	395.59
750.637	348.43
750.966	375.73
751.294	400.55
751.622	395.59
751.95	368.28
752.279	427.85
752.607	298.78
752.935	435.3
753.263	412.96
753.591	403.03
753.919	343.46
754.246	368.28
754.574	417.92
754.902	435.3
755.23	455.16
755.557	370.76
755.885	447.71
756.212	422.89
756.54	338.5
756.867	388.14
757.195	390.62
757.522	353.39
757.849	390.62
758.176	393.1
758.503	412.96
758.831	484.94
759.158	355.87
759.485	380.69
759.812	415.44
760.138	415.44
760.465	363.32
760.792	452.67
761.119	340.98
761.446	452.67
761.772	333.53
762.099	360.84
762.425	395.59
762.752	390.62
763.078	415.44
763.405	331.05
763.731	331.05
764.057	467.57
764.383	395.59
764.71	383.17
765.036	370.76
765.362	455.16
765.688	437.78
766.014	403.03
766.34	370.76
766.665	316.16
766.991	417.92
767.317	457.64
767.643	445.23
767.968	370.76
768.294	412.96
768.619	408
768.945	328.57
769.27	368.28
769.596	489.91
769.921	326.09
