Data from FLMS025871_14-13-25-571.txt Node
Date: Fri Oct 09 14:13:25 BST 2020
User: ph1arbx
Spectrometer: FLMS02587
Trigger mode: 0
Integration Time (sec): 2.000000E-2
Scans to average: 1
Electric dark correction enabled: true
Nonlinearity correction enabled: false
Boxcar width: 0
XAxis mode: Wavelengths
Number of Pixels in Spectrum: 2048
>>>>>Begin Spectral Data<<<<<
339.619	-22.03
340	-22.03
340.381	-22.03
340.762	-74.15
341.143	-74.15
341.524	-121.31
341.904	-116.35
342.285	-91.53
342.666	-74.15
343.046	-74.15
343.427	-2.17
343.807	10.24
344.188	-51.81
344.568	-34.44
344.949	49.95
345.329	-51.81
345.71	42.51
346.09	166.61
346.47	134.34
346.85	107.04
347.23	107.04
347.611	119.45
347.991	186.47
348.371	238.59
348.751	265.9
349.131	385.04
349.511	335.39
349.891	340.36
350.27	409.86
350.65	414.82
351.03	375.11
351.41	459.5
351.79	481.84
352.169	407.38
352.549	385.04
352.928	444.61
353.308	452.05
353.687	471.91
354.067	459.5
354.446	399.93
354.826	375.11
355.205	457.02
355.584	481.84
355.964	476.87
356.343	521.55
356.722	409.86
357.101	469.43
357.48	402.41
357.859	469.43
358.238	427.23
358.617	476.87
358.996	452.05
359.375	387.52
359.754	452.05
360.133	514.11
360.512	529
360.891	427.23
361.269	424.75
361.648	407.38
362.027	454.54
362.405	427.23
362.784	459.5
363.162	464.46
363.541	454.54
363.919	479.36
364.298	419.79
364.676	427.23
365.054	429.71
365.433	355.25
365.811	392.48
366.189	392.48
366.567	444.61
366.945	486.8
367.323	429.71
367.701	392.48
368.079	407.38
368.457	474.39
368.835	444.61
369.213	427.23
369.591	432.2
369.969	414.82
370.346	469.43
370.724	479.36
371.102	484.32
371.479	521.55
371.857	479.36
372.235	452.05
372.612	387.52
372.99	409.86
373.367	362.7
373.744	387.52
374.122	407.38
374.499	390
374.876	362.7
375.254	437.16
375.631	449.57
376.008	464.46
376.385	392.48
376.762	486.8
377.139	394.96
377.516	412.34
377.893	514.11
378.27	491.77
378.647	494.25
379.024	479.36
379.4	432.2
379.777	469.43
380.154	452.05
380.53	454.54
380.907	556.3
381.284	481.84
381.66	481.84
382.037	461.98
382.413	474.39
382.79	469.43
383.166	457.02
383.542	452.05
383.919	481.84
384.295	553.82
384.671	486.8
385.047	474.39
385.423	491.77
385.799	442.12
386.176	449.57
386.552	444.61
386.928	553.82
387.303	526.52
387.679	412.34
388.055	417.3
388.431	489.28
388.807	414.82
389.183	464.46
389.558	471.91
389.934	533.96
390.309	466.95
390.685	504.18
391.061	509.14
391.436	437.16
391.811	444.61
392.187	489.28
392.562	499.21
392.938	506.66
393.313	444.61
393.688	484.32
394.063	496.73
394.438	466.95
394.814	474.39
395.189	563.75
395.564	474.39
395.939	524.03
396.314	558.78
396.689	563.75
397.063	474.39
397.438	568.71
397.813	538.93
398.188	541.41
398.563	479.36
398.937	533.96
399.312	546.37
399.686	521.55
400.061	481.84
400.435	521.55
400.81	464.46
401.184	529
401.559	526.52
401.933	466.95
402.307	571.19
402.682	538.93
403.056	442.12
403.43	538.93
403.804	618.35
404.178	650.62
404.552	576.16
404.926	561.27
405.3	531.48
405.674	511.62
406.048	586.09
406.422	484.32
406.796	551.34
407.169	596.02
407.543	546.37
407.917	558.78
408.291	593.53
408.664	576.16
409.038	484.32
409.411	509.14
409.785	625.8
410.158	687.85
410.531	588.57
410.905	653.1
411.278	625.8
411.651	538.93
412.025	710.19
412.398	620.84
412.771	593.53
413.144	747.42
413.517	779.69
413.89	824.37
414.263	675.44
414.636	702.75
415.009	839.26
415.382	779.69
415.755	836.78
416.127	826.85
416.5	876.49
416.873	878.98
417.245	903.8
417.618	874.01
417.991	998.12
418.363	953.44
418.736	988.19
419.108	1055.2
419.48	1089.95
419.853	1107.33
420.225	1238.88
420.597	1251.29
420.97	1320.79
421.342	1333.2
421.714	1375.4
422.086	1531.77
422.458	1606.23
422.83	1695.59
423.202	1678.21
423.574	1876.78
423.946	1926.42
424.318	2097.69
424.69	2266.47
425.061	2375.68
425.433	2390.58
425.805	2579.22
426.177	2685.95
426.548	2815.02
426.92	3058.26
427.291	3209.67
427.663	3229.53
428.034	3331.29
428.406	3425.61
428.777	3577.02
429.148	3961.75
429.519	4021.32
429.891	4348.96
430.262	4684.04
430.633	4567.38
431.004	4813.11
431.375	5220.18
431.746	5245
432.117	5413.78
432.488	5666.95
432.859	6213.02
433.23	6342.09
433.601	6414.07
433.971	6989.92
434.342	6972.54
434.713	7632.78
435.083	8094.45
435.454	8293.02
435.825	8680.23
436.195	8836.6
436.566	9102.19
436.936	9546.48
437.306	10067.73
437.677	10360.61
438.047	10740.38
438.417	11053.12
438.788	11671.16
439.158	12016.18
439.528	12773.22
439.898	12825.34
440.268	14277.37
440.638	14461.05
441.008	15389.36
441.378	15885.78
441.748	16523.68
442.118	17605.88
442.487	18506.88
442.857	18866.79
443.227	19090.17
443.597	20050.75
443.966	20740.77
444.336	21602.06
444.705	21813.04
445.075	22808.37
445.444	23436.34
445.814	23994.81
446.183	24828.8
446.552	24689.8
446.922	25243.31
447.291	24741.93
447.66	25786.89
448.029	25295.44
448.398	25603.22
448.768	25809.23
449.137	25578.4
449.506	25441.88
449.875	25330.18
450.243	24560.73
450.612	24488.75
450.981	24161.11
451.35	24046.94
451.719	23580.3
452.087	23230.32
452.456	22681.78
452.825	22537.82
453.193	21969.42
453.562	21512.71
453.93	21557.39
454.299	20909.56
454.667	20380.87
455.035	20172.37
455.404	19800.06
455.772	18854.37
456.14	19040.53
456.508	18747.64
456.877	18499.43
457.245	17613.32
457.613	17104.49
457.981	17308.02
458.349	16938.19
458.717	17012.65
459.085	16613.03
459.452	16573.32
459.82	16382.2
460.188	15863.44
460.556	16352.41
460.923	15930.46
461.291	15940.38
461.659	15813.8
462.026	15992.51
462.394	15739.33
462.761	15860.96
463.128	15935.42
463.496	15803.87
463.863	16047.11
464.23	16357.38
464.598	16536.09
464.965	16488.93
465.332	16821.53
465.699	16759.48
466.066	16992.8
466.433	17250.94
466.8	17581.06
467.167	17955.85
467.534	18504.4
467.901	18665.73
468.268	18933.8
468.635	19566.74
469.001	19787.65
469.368	20202.16
469.735	20862.4
470.101	20966.65
470.468	21468.03
470.834	21870.13
471.201	22450.94
471.567	23044.17
471.934	23304.79
472.3	23629.94
472.666	24401.88
473.032	24503.64
473.399	25171.33
473.765	25913.48
474.131	26407.42
474.497	26601.02
474.863	27405.22
475.229	27775.06
475.595	28432.82
475.961	29083.13
476.327	29110.43
476.693	29810.38
477.058	30068.52
477.424	30532.68
477.79	30887.62
478.156	31664.51
478.521	31691.82
478.887	32287.52
479.252	32734.3
479.618	33069.39
479.983	33171.15
480.348	33575.74
480.714	34265.76
481.079	34052.3
481.444	34518.93
481.81	34732.4
482.175	35020.32
482.54	35251.16
482.905	36077.7
483.27	36504.62
483.635	36526.96
484	36005.72
484.365	37271.59
484.73	37408.1
485.095	37303.86
485.459	38162.66
485.824	38691.35
486.189	38137.84
486.553	39205.15
486.918	39460.8
487.283	40108.63
487.647	40490.88
488.012	41714.56
488.376	41990.07
488.74	42315.22
489.105	42416.99
489.469	43074.75
489.833	43213.75
490.198	44241.34
490.562	44387.78
490.926	44429.98
491.29	45144.82
491.654	45373.18
492.018	45728.12
492.382	45465.01
492.746	45276.37
493.11	46110.36
493.474	46120.29
493.837	46249.36
494.201	46331.27
494.565	45924.2
494.928	46038.38
495.292	46008.6
495.656	45641.24
496.019	45824.92
496.383	46078.09
496.746	45281.34
497.109	45276.37
497.473	45077.81
497.836	44499.48
498.199	44447.35
498.563	44457.28
498.926	43586.06
499.289	43432.17
499.652	42972.98
500.015	42526.2
500.378	41975.18
500.741	41578.04
501.104	40955.03
501.467	40791.21
501.829	40443.72
502.192	40431.31
502.555	39527.82
502.918	38986.72
503.28	39068.63
503.643	38393.5
504.005	38175.07
504.368	38050.97
504.73	37552.07
505.093	37859.85
505.455	37030.82
505.817	36986.15
506.18	36973.74
506.542	35901.47
506.904	36025.57
507.266	35740.13
507.628	35573.83
507.991	35561.42
508.353	35422.42
508.715	35067.48
509.076	34598.36
509.438	34648
509.8	34677.79
510.162	34072.16
510.524	34047.34
510.885	33426.81
511.247	33397.02
511.609	33228.24
511.97	33322.56
512.332	33369.72
512.693	32850.96
513.055	32999.89
513.416	32850.96
513.778	32540.7
514.139	32533.25
514.5	32796.35
514.861	32538.22
515.223	32468.72
515.584	32332.2
515.945	32463.75
516.306	32769.05
516.667	32550.63
517.028	31984.71
517.389	32540.7
517.75	32250.29
518.11	32491.06
518.471	32525.81
518.832	32242.85
519.193	32471.2
519.553	32575.45
519.914	32128.67
520.274	32667.29
520.635	32649.91
520.995	32366.95
521.356	32170.86
521.716	32831.1
522.076	32371.91
522.437	32456.31
522.797	32756.64
523.157	32605.23
523.517	32349.58
523.877	32585.38
524.238	32786.43
524.598	33166.19
524.958	33208.38
525.317	32630.05
525.677	32478.65
526.037	32729.34
526.397	32932.87
526.757	32865.85
527.116	32699.55
527.476	32540.7
527.836	32942.8
528.195	33123.99
528.555	33349.86
528.914	32868.34
529.274	32957.69
529.633	33168.67
529.993	33449.15
530.352	33476.45
530.711	33161.22
531.07	33260.51
531.429	33029.67
531.789	32860.89
532.148	33267.95
532.507	33133.92
532.866	32945.28
533.225	33461.56
533.584	33392.06
533.942	33307.67
534.301	33052.01
534.66	33275.4
535.019	33066.9
535.377	33667.57
535.736	32692.11
536.095	33670.06
536.453	33310.15
536.812	33558.36
537.17	33223.28
537.528	33183.56
537.887	33290.29
538.245	33684.95
538.603	33034.64
538.962	33394.54
539.32	33593.11
539.678	33471.49
540.036	33223.28
540.394	33617.93
540.752	33945.57
541.11	33846.28
541.468	33603.04
541.826	33588.15
542.184	33962.94
542.541	33709.77
542.899	33456.59
543.257	33950.53
543.614	33744.52
543.972	33828.91
544.33	34000.18
544.687	33650.2
545.045	34357.6
545.402	34280.65
545.759	34337.74
546.117	34034.92
546.474	33871.11
546.831	34025
547.188	33863.66
547.546	34109.39
547.903	33838.84
548.26	33796.64
548.617	33575.74
548.974	33823.95
549.331	34114.35
549.687	33761.89
550.044	33818.98
550.401	34067.19
550.758	34007.62
551.114	34290.58
551.471	34084.57
551.828	33806.57
552.184	33960.46
552.541	34084.57
552.897	34206.19
553.254	34290.58
553.61	34404.76
553.966	34491.63
554.323	34628.15
554.679	34372.49
555.035	34434.54
555.391	34387.38
555.747	34469.29
556.103	34553.68
556.459	34687.72
556.815	34918.55
557.171	34754.73
557.527	35124.57
557.883	34163.99
558.239	34816.79
558.594	34404.76
558.95	35087.34
559.306	34916.07
559.661	35035.21
560.017	34975.64
560.372	34943.37
560.728	34826.72
561.083	35025.28
561.438	35442.28
561.794	35412.49
562.149	35082.37
562.504	35035.21
562.859	34935.93
563.215	35035.21
563.57	35566.38
563.925	35459.65
564.28	35759.99
564.635	35675.6
564.99	35913.88
565.344	35707.86
565.699	35509.29
566.054	36167.05
566.409	35752.54
566.763	35936.22
567.118	36035.5
567.473	36000.75
567.827	36569.15
568.182	35620.99
568.536	36323.42
568.891	35946.14
569.245	35581.28
569.599	36422.71
569.953	36028.05
570.308	36303.57
570.662	36184.43
571.016	36037.98
571.37	36368.1
571.724	36732.97
572.078	36035.5
572.432	37028.34
572.786	36747.86
573.14	36832.26
573.494	36390.44
573.847	36348.25
574.201	37301.37
574.555	36790.06
574.908	36564.19
575.262	36561.71
575.615	36618.8
575.969	36931.54
576.322	36248.96
576.676	36618.8
577.029	37028.34
577.382	36373.07
577.736	36703.19
578.089	36901.75
578.442	36651.06
578.795	36561.71
579.148	36755.31
579.501	36603.9
579.854	36802.47
580.207	36963.81
580.56	36258.89
580.913	36494.69
581.265	36420.23
581.618	36504.62
581.971	36688.29
582.324	36241.52
582.676	36301.09
583.029	36586.53
583.381	36172.02
583.734	36432.64
584.086	36437.6
584.438	36124.86
584.791	36028.05
585.143	36090.11
585.495	36000.75
585.847	35809.63
586.2	35578.79
586.552	35829.49
586.904	35973.45
587.256	36077.7
587.608	35968.48
587.959	35042.66
588.311	35486.96
588.663	35717.79
589.015	35620.99
589.367	35387.67
589.718	35444.76
590.07	35638.36
590.421	35474.55
590.773	35362.85
591.124	34983.09
591.476	34980.61
591.827	35271.01
592.179	34851.54
592.53	34677.79
592.881	34873.88
593.232	34978.12
593.584	34536.31
593.935	34988.05
594.286	34474.26
594.637	34561.13
594.988	34181.37
595.339	34556.17
595.689	34652.97
596.04	34590.92
596.391	34588.43
596.742	34389.87
597.092	34208.67
597.443	34382.42
597.794	34211.15
598.144	34479.22
598.495	34106.91
598.845	34029.96
599.196	34101.94
599.546	34558.65
599.896	34245.9
600.247	34054.78
600.597	34476.74
600.947	34697.65
601.297	34588.43
601.647	34501.56
601.997	34558.65
602.347	34739.84
602.697	34404.76
603.047	34811.82
603.397	34250.87
603.747	34275.69
604.096	34280.65
604.446	34878.84
604.796	34471.77
605.145	35030.25
605.495	34605.81
605.844	34657.93
606.194	34896.21
606.543	34985.57
606.893	34913.59
607.242	35007.91
607.591	35010.39
607.94	34940.89
608.29	34816.79
608.639	34928.48
608.988	35050.11
609.337	34839.13
609.686	35449.72
610.035	35199.03
610.384	35491.92
610.733	35772.4
611.081	35993.3
611.43	35896.5
611.779	35544.04
612.127	35377.74
612.476	35759.99
612.825	35891.54
613.173	35702.9
613.522	35814.59
613.87	35544.04
614.218	35392.64
614.567	35571.35
614.915	36042.95
615.263	35851.82
615.611	35516.74
615.96	35477.03
616.308	35819.56
616.656	35717.79
617.004	35834.45
617.352	35742.61
617.7	35737.65
618.047	35586.24
618.395	35692.97
618.743	36065.29
619.091	35938.7
619.438	35886.57
619.786	35896.5
620.134	35730.2
620.481	35469.58
620.829	35134.5
621.176	35931.25
621.523	35469.58
621.871	35745.09
622.218	35603.61
622.565	35650.77
622.912	35715.31
623.259	35812.11
623.607	35628.44
623.954	35705.38
624.301	35457.17
624.648	35370.3
624.994	35516.74
625.341	35161.8
625.688	35350.44
626.035	35201.51
626.382	34873.88
626.728	35196.55
627.075	34819.27
627.421	34854.02
627.768	34744.81
628.114	34397.31
628.461	34816.79
628.807	33838.84
629.154	34536.31
629.5	34600.84
629.846	34407.24
630.192	34280.65
630.538	34109.39
630.884	33712.25
631.231	33675.02
631.577	33871.11
631.922	33555.88
632.268	33503.75
632.614	33434.26
632.96	33223.28
633.306	33037.12
633.651	32766.57
633.997	32709.48
634.343	32446.38
634.688	32098.88
635.034	32272.63
635.379	32009.53
635.725	31979.74
636.07	31629.77
636.415	31912.73
636.761	31726.57
637.106	31773.73
637.451	31029.1
637.796	31083.7
638.141	30738.69
638.486	30644.37
638.831	30882.65
639.176	30823.08
639.521	30349
639.866	30170.29
640.211	29889.81
640.555	29795.49
640.9	29462.89
641.245	29629.19
641.589	29510.05
641.934	29348.71
642.278	29227.09
642.623	28996.25
642.967	28688.47
643.312	28390.62
643.656	28690.95
644	28144.89
644.344	28336.01
644.689	27670.81
645.033	27457.35
645.377	27330.76
645.721	27330.76
646.065	27494.58
646.409	27082.55
646.753	27065.18
647.096	26854.2
647.44	26298.21
647.784	25987.94
648.128	26015.25
648.471	26198.92
648.815	26015.25
649.158	25543.65
649.502	25615.63
649.845	25198.63
650.189	25101.83
650.532	25139.06
650.875	24769.23
651.218	24928.08
651.562	24689.8
651.905	24275.29
652.248	23761.49
652.591	23984.88
652.934	23741.64
653.277	23612.57
653.62	23483.5
653.963	23644.84
654.305	23036.72
654.648	23222.88
654.991	22612.28
655.334	22666.89
655.676	22269.75
656.019	22354.14
656.361	22063.74
656.704	22140.68
657.046	22004.16
657.389	21472.99
657.731	21445.69
658.073	21132.95
658.415	21309.18
658.757	20710.99
659.1	20842.54
659.442	20485.12
659.784	20562.06
660.126	20388.32
660.468	20311.37
660.809	20199.68
661.151	19807.5
661.493	20167.41
661.835	19852.18
662.177	19546.88
662.518	19603.97
662.86	19199.39
663.201	19157.19
663.543	18720.34
663.884	18752.61
664.226	18511.84
664.567	18479.58
664.908	18526.74
665.249	18094.85
665.591	17893.8
665.932	17662.96
666.273	17816.85
666.614	17576.09
666.955	17270.79
667.296	17538.86
667.637	17198.81
667.978	17007.69
668.318	16779.34
668.659	16660.19
669	16590.7
669.341	16655.23
669.681	16225.83
670.022	16146.4
670.362	15784.01
670.703	15863.44
671.043	15721.96
671.383	15682.25
671.724	15503.53
672.064	15401.77
672.404	15183.34
672.744	15255.32
673.085	14917.76
673.425	14977.33
673.765	14659.62
674.105	14351.84
674.444	14366.73
674.784	14212.84
675.124	14252.55
675.464	13880.24
675.804	13771.02
676.143	13669.26
676.483	13527.78
676.823	13592.31
677.162	13232.41
677.501	13321.76
677.841	13123.2
678.18	12937.04
678.52	12671.45
678.859	12557.28
679.198	12318.99
679.537	12244.53
679.876	12145.25
680.215	12137.8
680.555	12016.18
680.894	11946.68
681.232	11780.38
681.571	11621.52
681.91	11884.63
682.249	11482.52
682.588	11333.6
682.926	11095.32
683.265	11159.85
683.604	11018.37
683.942	10971.21
684.281	10469.83
684.619	10797.46
684.957	10561.66
685.296	10526.91
685.634	10487.2
685.972	10276.22
686.31	10370.54
686.649	10060.28
686.987	9774.84
687.325	9938.66
687.663	9817.03
688.001	9536.56
688.338	9735.12
688.676	9635.84
689.014	9355.36
689.352	9251.11
689.69	9129.49
690.027	9040.13
690.365	8945.81
690.702	9035.17
691.04	9042.62
691.377	8806.82
691.715	8836.6
692.052	8595.84
692.389	8590.87
692.726	8531.3
693.064	8302.95
693.401	8263.24
693.738	8273.16
694.075	8206.15
694.412	8350.11
694.749	7972.83
695.086	7873.55
695.423	7948.01
695.759	7794.12
696.096	8059.7
696.433	7965.38
696.769	7811.49
697.106	7928.15
697.443	7836.31
697.779	7846.24
698.116	7645.19
698.452	7771.78
698.788	7759.37
699.125	7560.8
699.461	7600.51
699.797	7583.14
700.133	7573.21
700.469	7625.33
700.805	7670.01
701.141	7630.3
701.477	7429.25
701.813	7583.14
702.149	7732.07
702.485	7555.84
702.82	7625.33
703.156	7511.16
703.492	7796.6
703.827	7508.68
704.163	7816.46
704.498	7781.71
704.834	7898.37
705.169	7903.33
705.505	8002.61
705.84	7873.55
706.175	8114.31
706.51	8012.54
706.845	8049.77
707.18	8158.99
707.515	8119.27
707.85	8240.9
708.185	8158.99
708.52	8327.77
708.855	8347.63
709.19	8397.27
709.525	8774.55
709.859	8635.55
710.194	8729.87
710.529	8814.26
710.863	8863.9
711.198	8953.26
711.532	8849.01
711.866	9223.81
712.201	9037.65
712.535	9350.4
712.869	9504.29
713.203	9472.02
713.537	9638.32
713.872	9675.55
714.206	9712.78
714.54	9958.51
714.873	10050.35
715.207	10179.42
715.541	10291.11
715.875	10449.97
716.209	10606.34
716.542	10718.04
716.876	10847.11
717.21	10976.18
717.543	11229.35
717.877	11303.81
718.21	11303.81
718.543	11695.99
718.877	11775.41
719.21	11867.25
719.543	12162.62
719.876	12390.97
720.209	12706.2
720.542	12596.99
720.875	12961.86
721.208	13009.02
721.541	13133.12
721.874	13723.86
722.207	13624.58
722.54	14292.27
722.872	14227.73
723.205	14478.42
723.538	14580.19
723.87	14828.4
724.203	15235.47
724.535	15580.48
724.868	15836.14
725.2	16039.67
725.532	16178.67
725.865	16466.59
726.197	16560.91
726.529	17089.6
726.861	17032.51
727.193	17350.22
727.525	17563.68
727.857	18032.8
728.189	17881.39
728.521	17980.67
728.853	18660.77
729.184	18489.51
729.516	19196.9
729.848	18951.18
730.179	18881.68
730.511	19306.12
730.842	19147.26
731.174	19469.94
731.505	19710.7
731.836	19303.64
732.168	19330.94
732.499	19316.05
732.83	19402.92
733.161	19360.72
733.492	19052.94
733.823	18886.64
734.154	18819.63
734.485	18487.02
734.816	18305.83
735.147	18310.79
735.478	17722.54
735.808	17350.22
736.139	17079.67
736.47	16766.92
736.8	16382.2
737.131	15992.51
737.461	15478.71
737.792	15334.75
738.122	14801.1
738.452	14240.14
738.782	14111.07
739.113	13624.58
739.443	12912.22
739.773	12403.39
740.103	12028.59
740.433	11651.31
740.763	11497.42
741.093	11085.39
741.423	10971.21
741.752	10688.25
742.082	10286.15
742.412	9673.07
742.742	9665.62
743.071	9499.32
743.401	9298.27
743.73	9077.37
744.06	8796.89
