Data from FLMS025871_15-58-10-695.txt Node
Date: Tue Nov 17 15:58:10 GMT 2020
User: php20df
Spectrometer: FLMS02587
Trigger mode: 0
Integration Time (sec): 1.000000E-1
Scans to average: 1
Electric dark correction enabled: true
Nonlinearity correction enabled: false
Boxcar width: 0
XAxis mode: Wavelengths
Number of Pixels in Spectrum: 2048
>>>>>Begin Spectral Data<<<<<
339.619	-12.1
340	-12.1
340.381	-12.1
340.762	-34.44
341.143	-81.6
341.524	-94.01
341.904	-121.31
342.285	-143.65
342.666	-54.3
343.046	-44.37
343.427	-54.3
343.807	-79.12
344.188	30.1
344.568	-14.58
344.949	35.06
345.329	-19.55
345.71	82.22
346.09	62.36
346.47	164.13
346.85	104.56
347.23	146.75
347.611	121.93
347.991	221.22
348.371	213.77
348.751	223.7
349.131	298.16
349.511	246.04
349.891	211.29
350.27	278.31
350.65	298.16
351.03	300.64
351.41	357.73
351.79	380.07
352.169	394.96
352.549	315.54
352.928	320.5
353.308	325.47
353.687	300.64
354.067	402.41
354.446	342.84
354.826	375.11
355.205	422.27
355.584	385.04
355.964	422.27
356.343	352.77
356.722	367.66
357.101	342.84
357.48	318.02
357.859	387.52
358.238	422.27
358.617	380.07
358.996	263.41
359.375	320.5
359.754	330.43
360.133	347.8
360.512	355.25
360.891	332.91
361.269	409.86
361.648	350.29
362.027	375.11
362.405	352.77
362.784	427.23
363.162	345.32
363.541	251
363.919	278.31
364.298	357.73
364.676	340.36
365.054	352.77
365.433	340.36
365.811	305.61
366.189	350.29
366.567	320.5
366.945	228.66
367.323	255.97
367.701	303.13
368.079	350.29
368.457	404.89
368.835	315.54
369.213	253.48
369.591	318.02
369.969	365.18
370.346	357.73
370.724	362.7
371.102	288.23
371.479	300.64
371.857	342.84
372.235	330.43
372.612	313.06
372.99	350.29
373.367	385.04
373.744	387.52
374.122	434.68
374.499	273.34
374.876	350.29
375.254	382.55
375.631	295.68
376.008	303.13
376.385	357.73
376.762	370.14
377.139	357.73
377.516	322.98
377.893	263.41
378.27	340.36
378.647	335.39
379.024	365.18
379.4	392.48
379.777	357.73
380.154	340.36
380.53	417.3
380.907	342.84
381.284	452.05
381.66	345.32
382.037	345.32
382.413	315.54
382.79	357.73
383.166	367.66
383.542	327.95
383.919	347.8
384.295	392.48
384.671	295.68
385.047	345.32
385.423	325.47
385.799	365.18
386.176	402.41
386.552	357.73
386.928	377.59
387.303	387.52
387.679	313.06
388.055	322.98
388.431	365.18
388.807	315.54
389.183	434.68
389.558	372.63
389.934	362.7
390.309	327.95
390.685	357.73
391.061	372.63
391.436	362.7
391.811	332.91
392.187	270.86
392.562	404.89
392.938	313.06
393.313	313.06
393.688	347.8
394.063	350.29
394.438	397.45
394.814	332.91
395.189	362.7
395.564	365.18
395.939	404.89
396.314	494.25
396.689	362.7
397.063	318.02
397.438	397.45
397.813	377.59
398.188	377.59
398.563	402.41
398.937	325.47
399.312	340.36
399.686	394.96
400.061	375.11
400.435	352.77
400.81	347.8
401.184	370.14
401.559	352.77
401.933	372.63
402.307	491.77
402.682	434.68
403.056	285.75
403.43	392.48
403.804	591.05
404.178	476.87
404.552	496.73
404.926	407.38
405.3	362.7
405.674	352.77
406.048	404.89
406.422	399.93
406.796	385.04
407.169	382.55
407.543	367.66
407.917	357.73
408.291	310.57
408.664	452.05
409.038	352.77
409.411	365.18
409.785	370.14
410.158	454.54
410.531	382.55
410.905	318.02
411.278	387.52
411.651	419.79
412.025	447.09
412.398	362.7
412.771	335.39
413.144	335.39
413.517	385.04
413.89	950.96
414.263	442.12
414.636	322.98
415.009	327.95
415.382	377.59
415.755	347.8
416.127	342.84
416.5	442.12
416.873	414.82
417.245	335.39
417.618	414.82
417.991	392.48
418.363	397.45
418.736	347.8
419.108	397.45
419.48	442.12
419.853	382.55
420.225	390
420.597	394.96
420.97	385.04
421.342	442.12
421.714	427.23
422.086	409.86
422.458	387.52
422.83	437.16
423.202	352.77
423.574	365.18
423.946	385.04
424.318	404.89
424.69	355.25
425.061	402.41
425.433	457.02
425.805	387.52
426.177	407.38
426.548	372.63
426.92	392.48
427.291	454.54
427.663	474.39
428.034	394.96
428.406	387.52
428.777	417.3
429.148	447.09
429.519	352.77
429.891	452.05
430.262	454.54
430.633	484.32
431.004	419.79
431.375	432.2
431.746	412.34
432.117	432.2
432.488	596.02
432.859	380.07
433.23	447.09
433.601	442.12
433.971	471.91
434.342	494.25
434.713	772.24
435.083	960.88
435.454	1027.9
435.825	735.01
436.195	427.23
436.566	442.12
436.936	412.34
437.306	392.48
437.677	305.61
438.047	484.32
438.417	442.12
438.788	546.37
439.158	412.34
439.528	387.52
439.898	417.3
440.268	491.77
440.638	504.18
441.008	392.48
441.378	494.25
441.748	434.68
442.118	432.2
442.487	432.2
442.857	437.16
443.227	387.52
443.597	447.09
443.966	422.27
444.336	471.91
444.705	479.36
445.075	434.68
445.444	454.54
445.814	457.02
446.183	447.09
446.552	449.57
446.922	452.05
447.291	447.09
447.66	454.54
448.029	469.43
448.398	469.43
448.768	501.7
449.137	514.11
449.506	486.8
449.875	449.57
450.243	340.36
450.612	486.8
450.981	432.2
451.35	474.39
451.719	385.04
452.087	474.39
452.456	464.46
452.825	476.87
453.193	516.59
453.562	427.23
453.93	506.66
454.299	501.7
454.667	464.46
455.035	414.82
455.404	459.5
455.772	543.89
456.14	531.48
456.508	516.59
456.877	536.44
457.245	474.39
457.613	466.95
457.981	461.98
458.349	553.82
458.717	489.28
459.085	452.05
459.452	414.82
459.82	471.91
460.188	566.23
460.556	439.64
460.923	481.84
461.291	432.2
461.659	491.77
462.026	529
462.394	504.18
462.761	442.12
463.128	561.27
463.496	511.62
463.863	568.71
464.23	536.44
464.598	516.59
464.965	581.12
465.332	605.94
465.699	529
466.066	653.1
466.433	538.93
466.8	546.37
467.167	459.5
467.534	608.43
467.901	581.12
468.268	633.25
468.635	623.32
469.001	529
469.368	643.18
469.735	591.05
470.101	640.69
470.468	645.66
470.834	608.43
471.201	620.84
471.567	705.23
471.934	690.34
472.3	613.39
472.666	553.82
473.032	690.34
473.399	668
473.765	784.66
474.131	665.51
474.497	705.23
474.863	695.3
475.229	762.32
475.595	767.28
475.961	802.03
476.327	702.75
476.693	802.03
477.058	739.98
477.424	886.42
477.79	923.65
478.156	978.26
478.521	898.83
478.887	998.12
479.252	1084.99
479.618	1094.92
479.983	1097.4
480.348	1092.44
480.714	1137.11
481.079	1184.27
481.444	1318.31
481.81	1355.54
482.175	1407.66
482.54	1370.43
482.905	1482.13
483.27	1613.68
483.635	1658.36
484	1693.11
484.365	1740.27
484.73	1725.37
485.095	2005.85
485.459	2013.3
485.824	2159.74
486.189	2057.97
486.553	2348.38
486.918	2470
487.283	2566.81
487.647	2596.59
488.012	2782.75
488.376	2790.2
488.74	2815.02
489.105	2983.8
489.469	3152.58
489.833	3179.89
490.198	3403.28
490.562	3529.86
490.926	3668.86
491.29	3842.61
491.654	4033.73
492.018	4254.64
492.382	4343.99
492.746	4502.85
493.11	4823.04
493.474	5110.96
493.837	5302.09
494.201	5302.09
494.565	5599.94
494.928	5868
495.292	6210.54
495.656	6466.19
496.019	6818.65
496.383	6868.29
496.746	7250.54
497.109	7491.3
497.473	7871.06
497.836	8235.93
498.199	8618.18
498.563	9196.51
498.926	9318.13
499.289	9764.91
499.652	10221.62
500.015	10665.91
500.378	11167.3
500.741	11422.95
501.104	11934.27
501.467	12688.83
501.829	13123.2
502.192	13368.92
502.555	14252.55
502.918	14696.85
503.28	15376.95
503.643	15776.57
504.005	16824.01
504.368	17106.97
504.73	17883.87
505.093	18705.45
505.455	19035.57
505.817	19782.68
506.18	20579.44
506.542	21324.07
506.904	22599.87
507.266	22614.76
507.628	23376.77
507.991	24607.89
508.353	25228.42
508.715	25737.25
509.076	26568.75
509.438	27457.35
509.8	27899.16
510.162	28710.81
510.524	29306.52
510.885	29465.37
511.247	29964.27
511.609	30944.7
511.97	31438.64
512.332	31607.43
512.693	32257.74
513.055	32384.33
513.416	32903.08
513.778	33632.82
514.139	34010.1
514.5	34419.65
514.861	34695.16
515.223	34881.32
515.584	35077.41
515.945	35300.8
516.306	35171.73
516.667	35251.16
517.028	35114.64
517.389	35045.14
517.75	34878.84
518.11	34724.95
518.471	34650.49
518.832	34516.45
519.193	34437.03
519.553	33511.2
519.914	33627.86
520.274	33714.73
520.635	32818.69
520.995	32267.67
521.356	31798.55
521.716	31738.98
522.076	31235.11
522.437	30882.65
522.797	29877.4
523.157	29929.52
523.517	29155.11
523.877	28854.77
524.238	28142.41
524.598	27797.4
524.958	27492.1
525.317	26936.11
525.677	26586.13
526.037	25843.98
526.397	25362.45
526.757	24938.01
527.116	24118.92
527.476	23729.23
527.836	23349.47
528.195	22845.6
528.555	22383.93
528.914	22053.81
529.274	21765.88
529.633	20969.13
529.993	20882.25
530.352	20879.77
530.711	20053.23
531.07	19914.23
531.429	19591.56
531.789	19164.64
532.148	18727.79
532.507	18526.74
532.866	18129.6
533.225	17640.63
533.584	17725.02
533.942	17059.81
534.301	16757
534.66	16394.61
535.019	16382.2
535.377	16290.36
535.736	15838.62
536.095	15339.71
536.453	15178.38
536.812	14910.31
537.17	14505.73
537.528	14364.25
537.887	13972.08
538.245	13691.6
538.603	13269.64
538.962	13123.2
539.32	13304.39
539.678	12735.99
540.036	12726.06
540.394	12460.47
540.752	12261.91
541.11	12209.78
541.468	11795.27
541.826	11616.56
542.184	11182.19
542.541	11241.76
542.899	10484.72
543.257	10507.06
543.614	10248.92
543.972	9822
544.33	9702.86
544.687	9777.32
545.045	9792.21
545.402	9692.93
545.759	9539.04
546.117	9007.87
546.474	8717.46
546.831	8268.2
547.188	7975.31
547.546	7595.55
547.903	7528.53
548.26	7042.04
548.617	6994.88
548.974	6922.9
549.331	6823.62
549.687	6565.48
550.044	6232.87
550.401	5957.36
550.758	6009.48
551.114	5920.13
551.471	5810.92
551.828	5560.22
552.184	5503.14
552.541	5369.1
552.897	5086.14
553.254	5096.07
553.61	4947.14
553.966	4798.22
554.323	4815.59
554.679	4669.15
555.035	4460.65
555.391	4401.08
555.747	4237.26
556.103	4103.23
556.459	4068.48
556.815	4053.59
557.171	4013.87
557.527	3907.14
557.883	3949.34
558.239	3743.32
558.594	3547.24
558.95	3601.84
559.306	3584.47
559.661	3455.4
560.017	3438.02
560.372	3313.92
560.728	3236.97
561.083	2971.39
561.438	3105.42
561.794	3040.89
562.149	2978.84
562.504	2782.75
562.859	2941.6
563.215	2810.05
563.57	2757.93
563.925	2643.75
564.28	2628.86
564.635	2618.93
564.99	2514.68
565.344	2472.49
565.699	2509.72
566.054	2333.49
566.409	2348.38
566.763	2385.61
567.118	2316.11
567.473	2204.42
567.827	2241.65
568.182	2209.38
568.536	2147.33
568.891	2018.26
569.245	2177.12
569.599	1956.21
569.953	2035.64
570.308	1933.87
570.662	1918.98
571.016	1879.26
571.37	1983.51
571.724	1660.84
572.078	1812.25
572.432	1760.12
572.786	1730.34
573.14	1772.53
573.494	1740.27
573.847	1787.43
574.201	1725.37
574.555	1675.73
574.908	1539.21
575.262	1685.66
575.615	1606.23
575.969	1663.32
576.322	1777.5
576.676	1655.87
577.029	1583.89
577.382	1618.64
577.736	1598.79
578.089	1586.37
578.442	1569
578.795	1588.86
579.148	1581.41
579.501	1601.27
579.854	1583.89
580.207	1616.16
580.56	1541.7
580.913	1521.84
581.265	1462.27
581.618	1489.57
581.971	1588.86
582.324	1487.09
582.676	1511.91
583.029	1571.48
583.381	1611.2
583.734	1586.37
584.086	1613.68
584.438	1581.41
584.791	1581.41
585.143	1492.05
585.495	1643.46
585.847	1678.21
586.2	1720.41
586.552	1670.77
586.904	1675.73
587.256	1698.07
587.608	1606.23
587.959	1705.52
588.311	1750.19
588.663	1822.17
589.015	1695.59
589.367	1777.5
589.718	1747.71
590.07	1725.37
590.421	1837.07
590.773	1916.49
591.124	1834.59
591.476	1943.8
591.827	1990.96
592.179	1998.4
592.53	2132.44
592.881	2149.81
593.232	2100.17
593.584	2174.63
593.935	2276.4
594.286	2298.74
594.637	2229.24
594.988	2373.2
595.339	2489.86
595.689	2494.83
596.04	2532.06
596.391	2601.56
596.742	2673.54
597.092	2720.7
597.443	2817.5
597.794	2911.82
598.144	3030.96
598.495	3160.03
598.845	3199.74
599.196	3311.44
599.546	3373.49
599.896	3532.34
600.247	3596.88
600.597	3716.02
600.947	3758.22
601.297	3946.86
601.647	4056.07
601.997	4093.3
602.347	4187.62
602.697	4339.03
603.047	4557.45
603.397	4820.56
603.747	4937.22
604.096	4959.55
604.446	5165.57
604.796	5364.14
605.145	5743.9
605.495	5920.13
605.844	5967.29
606.194	6093.88
606.543	6386.76
606.893	6548.1
607.242	6858.36
607.591	6957.65
607.94	7094.16
608.29	7533.5
608.639	7764.33
608.988	8057.22
609.337	8504
609.686	8752.21
610.035	9323.09
610.384	10015.6
610.733	10494.65
611.081	10445.01
611.43	10812.36
611.779	11127.58
612.127	11313.74
612.476	11569.4
612.825	11867.25
613.173	12115.46
613.522	12430.69
613.87	13046.25
614.218	13515.37
614.567	13748.69
614.915	14349.36
615.263	14930.17
615.611	15649.98
615.96	15918.05
616.308	16685.02
616.656	17506.59
617.004	18367.88
617.352	19010.75
617.7	19596.52
618.047	19996.14
618.395	21105.64
618.743	21815.53
619.091	22244.93
619.438	23684.55
619.786	24342.31
620.134	25615.63
620.481	26427.27
620.829	27665.84
621.176	28355.87
621.523	29815.35
621.871	30959.6
622.218	32093.92
622.565	33697.36
622.912	34995.5
623.259	35879.13
623.607	37135.07
623.954	39316.84
624.301	39547.68
624.648	41014.6
624.994	42881.14
625.341	43097.09
625.688	44631.03
626.035	45981.29
626.382	46790.46
626.728	48150.65
627.075	48371.56
627.421	49997.34
627.768	50781.68
628.114	50873.52
628.461	51935.86
628.807	52265.98
629.154	52447.17
629.5	52169.18
629.846	51963.16
630.192	51799.35
630.538	50950.47
630.884	49384.26
631.231	48083.63
631.577	47254.61
631.922	45082.77
632.268	42930.79
632.614	40838.37
632.96	38966.87
633.306	36407.82
633.651	34144.14
633.997	31922.65
634.343	30021.36
634.688	27799.88
635.034	25588.32
635.379	23553
635.725	21954.52
636.07	20011.04
636.415	18871.75
636.761	17561.2
637.106	15932.94
637.451	14890.45
637.796	13954.7
638.141	12698.76
638.486	11691.02
638.831	10931.5
639.176	10306.01
639.521	9695.41
639.866	8968.15
640.211	8454.36
640.555	7985.24
640.9	7379.61
641.245	7109.06
641.589	6560.51
641.934	6180.75
642.278	5939.99
642.623	5493.21
642.967	5279.75
643.312	4765.95
643.656	4612.06
644	4396.12
644.344	4028.77
644.689	3842.61
645.033	3606.81
645.377	3405.76
645.721	3142.65
646.065	2988.76
646.409	2827.43
646.753	2683.47
647.096	2474.97
647.44	2283.85
647.784	2192.01
648.128	2080.31
648.471	1958.69
648.815	1914.01
649.158	1844.51
649.502	1722.89
649.845	1578.93
650.189	1626.09
650.532	1469.72
650.875	1420.07
651.218	1305.9
651.562	1412.63
651.905	1147.04
652.248	1228.95
652.591	1080.03
652.934	1087.47
653.277	1129.67
653.62	1032.87
653.963	998.12
654.305	938.55
654.648	943.51
654.991	898.83
655.334	841.74
655.676	1017.97
656.019	824.37
656.361	876.49
656.704	764.8
657.046	739.98
657.389	759.83
657.731	747.42
658.073	663.03
658.415	618.35
658.757	695.3
659.1	695.3
659.442	692.82
659.784	645.66
660.126	672.96
660.468	608.43
660.809	568.71
661.151	610.91
661.493	628.28
661.835	645.66
662.177	598.5
662.518	687.85
662.86	596.02
663.201	603.46
663.543	573.68
663.884	553.82
664.226	524.03
664.567	583.6
664.908	501.7
665.249	546.37
665.591	516.59
665.932	481.84
666.273	476.87
666.614	571.19
666.955	504.18
667.296	538.93
667.637	531.48
667.978	533.96
668.318	437.16
668.659	486.8
669	519.07
669.341	556.3
669.681	511.62
670.022	439.64
670.362	429.71
670.703	404.89
671.043	365.18
671.383	432.2
671.724	439.64
672.064	558.78
672.404	437.16
672.744	461.98
673.085	402.41
673.425	499.21
673.765	439.64
674.105	414.82
674.444	437.16
674.784	476.87
675.124	439.64
675.464	439.64
675.804	387.52
676.143	464.46
676.483	414.82
676.823	509.14
677.162	404.89
677.501	449.57
677.841	397.45
678.18	437.16
678.52	424.75
678.859	382.55
679.198	474.39
679.537	444.61
679.876	484.32
680.215	422.27
680.555	461.98
680.894	447.09
681.232	392.48
681.571	466.95
681.91	367.66
682.249	427.23
682.588	444.61
682.926	437.16
683.265	469.43
683.604	394.96
683.942	424.75
684.281	457.02
684.619	399.93
684.957	484.32
685.296	417.3
685.634	372.63
685.972	504.18
686.31	454.54
686.649	402.41
686.987	459.5
687.325	466.95
687.663	407.38
688.001	407.38
688.338	392.48
688.676	419.79
689.014	494.25
689.352	429.71
689.69	404.89
690.027	402.41
690.365	390
690.702	367.66
691.04	419.79
691.377	491.77
691.715	466.95
692.052	404.89
692.389	419.79
692.726	370.14
693.064	452.05
693.401	370.14
693.738	412.34
694.075	399.93
694.412	325.47
694.749	412.34
695.086	414.82
695.423	437.16
695.759	454.54
696.096	457.02
696.433	342.84
696.769	432.2
697.106	414.82
697.443	337.88
697.779	419.79
698.116	422.27
698.452	412.34
698.788	332.91
699.125	399.93
699.461	355.25
699.797	412.34
700.133	427.23
700.469	466.95
700.805	409.86
701.141	412.34
701.477	372.63
701.813	335.39
702.149	330.43
702.485	335.39
702.82	372.63
703.156	417.3
703.492	471.91
703.827	444.61
704.163	427.23
704.498	452.05
704.834	404.89
705.169	372.63
705.505	397.45
705.84	444.61
706.175	402.41
706.51	511.62
706.845	407.38
707.18	449.57
707.515	417.3
707.85	432.2
708.185	491.77
708.52	434.68
708.855	414.82
709.19	375.11
709.525	511.62
709.859	377.59
710.194	347.8
710.529	387.52
710.863	417.3
711.198	407.38
711.532	449.57
711.866	469.43
712.201	419.79
712.535	345.32
712.869	424.75
713.203	459.5
713.537	449.57
713.872	424.75
714.206	382.55
714.54	422.27
714.873	414.82
715.207	444.61
715.541	382.55
715.875	412.34
716.209	308.09
716.542	437.16
716.876	387.52
717.21	352.77
717.543	432.2
717.877	454.54
718.21	390
718.543	439.64
718.877	427.23
719.21	347.8
719.543	407.38
719.876	355.25
720.209	375.11
720.542	350.29
720.875	474.39
721.208	380.07
721.541	432.2
721.874	412.34
722.207	399.93
722.54	407.38
722.872	399.93
723.205	407.38
723.538	422.27
723.87	414.82
724.203	454.54
724.535	414.82
724.868	375.11
725.2	392.48
725.532	362.7
725.865	432.2
726.197	362.7
726.529	347.8
726.861	397.45
727.193	481.84
727.525	352.77
727.857	298.16
728.189	409.86
728.521	365.18
728.853	461.98
729.184	407.38
729.516	380.07
729.848	424.75
730.179	382.55
730.511	308.09
730.842	355.25
731.174	365.18
731.505	362.7
731.836	357.73
732.168	399.93
732.499	407.38
732.83	387.52
733.161	377.59
733.492	350.29
733.823	365.18
734.154	404.89
734.485	419.79
734.816	424.75
735.147	390
735.478	402.41
735.808	397.45
736.139	404.89
736.47	427.23
736.8	504.18
737.131	367.66
737.461	404.89
737.792	397.45
738.122	419.79
738.452	466.95
738.782	414.82
739.113	372.63
739.443	414.82
739.773	355.25
740.103	449.57
740.433	407.38
740.763	347.8
741.093	293.2
741.423	352.77
741.752	360.22
742.082	399.93
742.412	484.32
742.742	412.34
743.071	452.05
743.401	365.18
743.73	335.39
744.06	402.41
744.389	442.12
744.718	442.12
745.048	422.27
745.377	407.38
745.706	372.63
746.035	342.84
746.364	372.63
746.693	372.63
747.022	449.57
747.351	511.62
747.68	342.84
748.009	402.41
748.338	402.41
748.666	385.04
748.995	397.45
749.323	352.77
749.652	466.95
749.981	382.55
750.309	412.34
750.637	409.86
750.966	397.45
751.294	290.72
751.622	387.52
751.95	407.38
752.279	320.5
752.607	394.96
752.935	360.22
753.263	360.22
753.591	474.39
753.919	390
754.246	332.91
754.574	340.36
754.902	390
755.23	432.2
755.557	370.14
755.885	437.16
756.212	404.89
756.54	330.43
756.867	461.98
757.195	434.68
757.522	350.29
757.849	397.45
758.176	385.04
758.503	372.63
758.831	347.8
759.158	399.93
759.485	409.86
759.812	432.2
760.138	476.87
760.465	370.14
760.792	429.71
761.119	459.5
761.446	471.91
761.772	394.96
762.099	409.86
762.425	439.64
762.752	360.22
763.078	327.95
763.405	417.3
763.731	370.14
764.057	444.61
764.383	370.14
764.71	360.22
765.036	325.47
765.362	330.43
765.688	412.34
766.014	330.43
